# patient_id 055-69-54
# patient_first_name DOROTHY
# patient_middle_initial _
# patient_last_name CULLEN
# astroid_id 74069
# course_name 1st
# beam_name 180deg1
# gantry 180.0
# couch_rotation -0.0
# gigaproton_total 2886
# rows_total 2886
# E(MeV) X(mm) Y(mm) N(Gp)
164.287	46.347	-17.739	1.000000000
164.287	43.575	-12.938	1.000000000
164.287	7.538	-8.137	1.000000000
164.287	13.082	-8.137	1.000000000
164.287	46.347	-8.137	1.000000000
164.287	4.766	-3.335	1.000000000
164.287	10.310	-3.335	1.000000000
164.287	15.855	-3.335	1.000000000
164.287	43.575	-3.335	1.000000000
164.287	1.994	1.466	1.000000000
164.287	7.538	1.466	1.000000000
164.287	13.082	1.466	1.000000000
164.287	46.347	1.466	1.000000000
164.287	10.310	6.267	1.000000000
164.287	43.575	6.267	1.000000000
164.287	46.347	11.069	1.000000000
164.287	46.347	20.671	1.000000000
161.635	44.128	-22.900	1.000000000
161.635	41.322	-18.039	1.000000000
161.635	4.835	-13.178	1.000000000
161.635	10.449	-13.178	1.000000000
161.635	16.062	-13.178	1.000000000
161.635	44.128	-13.178	1.000000000
161.635	-3.584	-8.316	1.000000000
161.635	2.029	-8.316	1.000000000
161.635	7.642	-8.316	1.000000000
161.635	13.255	-8.316	1.000000000
161.635	18.869	-8.316	1.000000000
161.635	41.322	-8.316	1.000000000
161.635	46.935	-8.316	1.000000000
161.635	-0.778	-3.455	1.000000000
161.635	4.835	-3.455	1.000000000
161.635	10.449	-3.455	1.000000000
161.635	16.062	-3.455	1.000000000
161.635	21.675	-3.455	1.000000000
161.635	38.515	-3.455	1.000000000
161.635	44.128	-3.455	1.000000000
161.635	2.029	1.406	1.000000000
161.635	7.642	1.406	1.000000000
161.635	13.255	1.406	1.000000000
161.635	18.869	1.406	1.000000000
161.635	41.322	1.406	1.000000000
161.635	46.935	1.406	1.000000000
161.635	4.835	6.267	1.000000000
161.635	10.449	6.267	1.000000000
161.635	16.062	6.267	1.000000000
161.635	44.128	6.267	1.000000000
161.635	-3.584	11.129	1.000000000
161.635	46.935	11.129	1.000000000
161.635	-0.778	15.990	1.000000000
161.635	44.128	15.990	1.000000000
161.635	46.935	20.851	1.000000000
161.635	44.128	25.712	1.000000000
161.635	46.935	30.573	1.000000000
158.993	41.819	-28.163	1.000000000
158.993	38.979	-23.244	1.000000000
158.993	13.421	-18.326	1.000000000
158.993	41.819	-18.326	1.000000000
158.993	-0.778	-13.407	1.000000000
158.993	4.902	-13.407	1.000000000
158.993	10.581	-13.407	1.000000000
158.993	16.261	-13.407	1.000000000
158.993	44.659	-13.407	1.000000000
158.993	-9.297	-8.489	1.000000000
158.993	-3.618	-8.489	1.000000000
158.993	2.062	-8.489	1.000000000
158.993	7.741	-8.489	1.000000000
158.993	13.421	-8.489	1.000000000
158.993	19.101	-8.489	1.000000000
158.993	41.819	-8.489	1.000000000
158.993	47.498	-8.489	1.000000000
158.993	-6.457	-3.570	1.000000000
158.993	-0.778	-3.570	1.000000000
158.993	4.902	-3.570	1.000000000
158.993	10.581	-3.570	1.000000000
158.993	16.261	-3.570	1.000000000
158.993	21.940	-3.570	1.000000000
158.993	38.979	-3.570	1.000000000
158.993	44.659	-3.570	1.000000000
158.993	-9.297	1.349	1.000000000
158.993	-3.618	1.349	1.000000000
158.993	2.062	1.349	1.000000000
158.993	7.741	1.349	1.000000000
158.993	13.421	1.349	1.000000000
158.993	19.101	1.349	1.000000000
158.993	41.819	1.349	1.000000000
158.993	-46.214	6.267	1.000000000
158.993	-6.457	6.267	1.000000000
158.993	-0.778	6.267	1.000000000
158.993	4.902	6.267	1.000000000
158.993	10.581	6.267	1.000000000
158.993	16.261	6.267	1.000000000
158.993	44.659	6.267	1.000000000
158.993	-3.618	11.186	1.000000000
158.993	2.062	11.186	1.000000000
158.993	7.741	11.186	1.000000000
158.993	13.421	11.186	1.000000000
158.993	41.819	11.186	1.000000000
158.993	-6.457	16.105	1.000000000
158.993	-0.778	16.105	1.000000000
158.993	4.902	16.105	1.000000000
158.993	38.979	16.105	1.000000000
158.993	44.659	16.105	1.000000000
158.993	-3.618	21.023	1.000000000
158.993	41.819	21.023	1.000000000
158.993	47.498	21.023	1.000000000
158.993	44.659	25.942	1.000000000
158.993	41.819	30.861	1.000000000
158.993	19.101	40.698	1.000000000
158.993	24.780	40.698	1.000000000
158.993	21.940	45.616	1.000000000
156.374	-26.631	-38.511	1.000000000
156.374	-20.886	-38.511	1.000000000
156.374	-15.141	-38.511	1.000000000
156.374	-9.395	-38.511	1.000000000
156.374	-3.650	-38.511	1.000000000
156.374	2.095	-38.511	1.000000000
156.374	-23.758	-33.536	1.000000000
156.374	-18.013	-33.536	1.000000000
156.374	-12.268	-33.536	1.000000000
156.374	-6.523	-33.536	1.000000000
156.374	4.967	-23.585	1.000000000
156.374	39.438	-23.585	1.000000000
156.374	2.095	-18.610	1.000000000
156.374	7.840	-18.610	1.000000000
156.374	13.585	-18.610	1.000000000
156.374	42.310	-18.610	1.000000000
156.374	-6.523	-13.634	1.000000000
156.374	-0.778	-13.634	1.000000000
156.374	4.967	-13.634	1.000000000
156.374	10.712	-13.634	1.000000000
156.374	16.457	-13.634	1.000000000
156.374	39.438	-13.634	1.000000000
156.374	45.183	-13.634	1.000000000
156.374	-9.395	-8.659	1.000000000
156.374	-3.650	-8.659	1.000000000
156.374	2.095	-8.659	1.000000000
156.374	7.840	-8.659	1.000000000
156.374	13.585	-8.659	1.000000000
156.374	19.330	-8.659	1.000000000
156.374	42.310	-8.659	1.000000000
156.374	48.055	-8.659	1.000000000
156.374	-12.268	-3.683	1.000000000
156.374	-6.523	-3.683	1.000000000
156.374	-0.778	-3.683	1.000000000
156.374	4.967	-3.683	1.000000000
156.374	10.712	-3.683	1.000000000
156.374	16.457	-3.683	1.000000000
156.374	22.202	-3.683	1.000000000
156.374	39.438	-3.683	1.000000000
156.374	45.183	-3.683	1.000000000
156.374	-9.395	1.292	1.000000000
156.374	-3.650	1.292	1.000000000
156.374	2.095	1.292	1.000000000
156.374	7.840	1.292	1.000000000
156.374	13.585	1.292	1.000000000
156.374	19.330	1.292	1.000000000
156.374	25.075	1.292	1.000000000
156.374	36.565	1.292	1.000000000
156.374	42.310	1.292	1.000000000
156.374	-46.739	6.267	1.000000000
156.374	-12.268	6.267	1.000000000
156.374	-6.523	6.267	1.000000000
156.374	-0.778	6.267	1.000000000
156.374	4.967	6.267	1.000000000
156.374	10.712	6.267	1.000000000
156.374	16.457	6.267	1.000000000
156.374	39.438	6.267	1.000000000
156.374	45.183	6.267	1.000000000
156.374	-43.866	11.243	1.000000000
156.374	-9.395	11.243	1.000000000
156.374	-3.650	11.243	1.000000000
156.374	2.095	11.243	1.000000000
156.374	7.840	11.243	1.000000000
156.374	13.585	11.243	1.000000000
156.374	19.330	11.243	1.000000000
156.374	42.310	11.243	1.000000000
156.374	48.055	11.243	1.000000000
156.374	-12.268	16.218	1.000000000
156.374	-6.523	16.218	1.000000000
156.374	-0.778	16.218	1.000000000
156.374	4.967	16.218	1.000000000
156.374	10.712	16.218	1.000000000
156.374	39.438	16.218	1.000000000
156.374	45.183	16.218	1.000000000
156.374	-9.395	21.193	1.000000000
156.374	-3.650	21.193	1.000000000
156.374	42.310	21.193	1.000000000
156.374	39.438	26.169	1.000000000
156.374	45.183	26.169	1.000000000
156.374	42.310	31.144	1.000000000
156.374	22.202	36.120	1.000000000
156.374	19.330	41.095	1.000000000
156.374	25.075	41.095	1.000000000
156.374	22.202	46.070	1.000000000
153.711	-26.940	-36.529	1.000000000
153.711	-21.126	-36.529	1.000000000
153.711	-15.312	-36.529	1.000000000
153.711	-9.499	-36.529	1.000000000
153.711	-3.685	-36.529	1.000000000
153.711	2.129	-36.529	1.000000000
153.711	37.012	-26.459	1.000000000
153.711	5.036	-21.424	1.000000000
153.711	10.850	-21.424	1.000000000
153.711	39.919	-21.424	1.000000000
153.711	45.732	-21.424	1.000000000
153.711	-15.312	-16.390	1.000000000
153.711	-9.499	-16.390	1.000000000
153.711	-3.685	-16.390	1.000000000
153.711	2.129	-16.390	1.000000000
153.711	7.943	-16.390	1.000000000
153.711	13.757	-16.390	1.000000000
153.711	19.570	-16.390	1.000000000
153.711	37.012	-16.390	1.000000000
153.711	42.825	-16.390	1.000000000
153.711	-12.405	-11.355	1.000000000
153.711	-6.592	-11.355	1.000000000
153.711	-0.778	-11.355	1.000000000
153.711	5.036	-11.355	1.000000000
153.711	10.850	-11.355	1.000000000
153.711	16.663	-11.355	1.000000000
153.711	22.477	-11.355	1.000000000
153.711	39.919	-11.355	1.000000000
153.711	45.732	-11.355	1.000000000
153.711	-9.499	-6.320	1.000000000
153.711	-3.685	-6.320	1.000000000
153.711	2.129	-6.320	1.000000000
153.711	7.943	-6.320	1.000000000
153.711	13.757	-6.320	1.000000000
153.711	19.570	-6.320	1.000000000
153.711	25.384	-6.320	1.000000000
153.711	37.012	-6.320	1.000000000
153.711	42.825	-6.320	1.000000000
153.711	-47.288	-1.285	1.000000000
153.711	-12.405	-1.285	1.000000000
153.711	-6.592	-1.285	1.000000000
153.711	-0.778	-1.285	1.000000000
153.711	5.036	-1.285	1.000000000
153.711	10.850	-1.285	1.000000000
153.711	16.663	-1.285	1.000000000
153.711	22.477	-1.285	1.000000000
153.711	39.919	-1.285	1.000000000
153.711	45.732	-1.285	1.000000000
153.711	-44.381	3.750	1.000000000
153.711	-15.312	3.750	1.000000000
153.711	-9.499	3.750	1.000000000
153.711	-3.685	3.750	1.000000000
153.711	2.129	3.750	1.000000000
153.711	7.943	3.750	1.000000000
153.711	13.757	3.750	1.000000000
153.711	19.570	3.750	1.000000000
153.711	25.384	3.750	1.000000000
153.711	37.012	3.750	1.000000000
153.711	42.825	3.750	1.000000000
153.711	-41.474	8.785	1.000000000
153.711	-12.405	8.785	1.000000000
153.711	-6.592	8.785	1.000000000
153.711	-0.778	8.785	1.000000000
153.711	5.036	8.785	1.000000000
153.711	10.850	8.785	1.000000000
153.711	16.663	8.785	1.000000000
153.711	22.477	8.785	1.000000000
153.711	39.919	8.785	1.000000000
153.711	45.732	8.785	1.000000000
153.711	-44.381	13.820	1.000000000
153.711	-38.567	13.820	1.000000000
153.711	-15.312	13.820	1.000000000
153.711	-9.499	13.820	1.000000000
153.711	-3.685	13.820	1.000000000
153.711	2.129	13.820	1.000000000
153.711	7.943	13.820	1.000000000
153.711	13.757	13.820	1.000000000
153.711	19.570	13.820	1.000000000
153.711	37.012	13.820	1.000000000
153.711	42.825	13.820	1.000000000
153.711	-41.474	18.855	1.000000000
153.711	-12.405	18.855	1.000000000
153.711	-6.592	18.855	1.000000000
153.711	-0.778	18.855	1.000000000
153.711	5.036	18.855	1.000000000
153.711	16.663	18.855	1.000000000
153.711	39.919	18.855	1.000000000
153.711	45.732	18.855	1.000000000
153.711	37.012	23.889	1.000000000
153.711	42.825	23.889	1.000000000
153.711	16.663	28.924	1.000000000
153.711	39.919	28.924	1.000000000
153.711	45.732	28.924	1.000000000
153.711	19.570	33.959	1.000000000
153.711	42.825	33.959	1.000000000
153.711	16.663	38.994	1.000000000
153.711	22.477	38.994	1.000000000
153.711	28.291	38.994	1.000000000
153.711	19.570	44.029	1.000000000
153.711	25.384	44.029	1.000000000
153.711	16.663	49.064	1.000000000
153.711	22.477	49.064	1.000000000
152.361	-30.022	-36.787	1.000000000
152.361	-24.173	-36.787	1.000000000
152.361	-18.324	-36.787	1.000000000
152.361	-12.475	-36.787	1.000000000
152.361	-6.627	-36.787	1.000000000
152.361	-0.778	-36.787	1.000000000
152.361	5.071	-36.787	1.000000000
152.361	-9.551	-31.722	1.000000000
152.361	40.164	-26.656	1.000000000
152.361	2.147	-21.591	1.000000000
152.361	7.995	-21.591	1.000000000
152.361	13.844	-21.591	1.000000000
152.361	37.239	-21.591	1.000000000
152.361	43.088	-21.591	1.000000000
152.361	-18.324	-16.526	1.000000000
152.361	-12.475	-16.526	1.000000000
152.361	-6.627	-16.526	1.000000000
152.361	-0.778	-16.526	1.000000000
152.361	5.071	-16.526	1.000000000
152.361	10.920	-16.526	1.000000000
152.361	16.768	-16.526	1.000000000
152.361	40.164	-16.526	1.000000000
152.361	46.012	-16.526	1.000000000
152.361	-15.400	-11.461	1.000000000
152.361	-9.551	-11.461	1.000000000
152.361	-3.702	-11.461	1.000000000
152.361	2.147	-11.461	1.000000000
152.361	7.995	-11.461	1.000000000
152.361	13.844	-11.461	1.000000000
152.361	19.693	-11.461	1.000000000
152.361	37.239	-11.461	1.000000000
152.361	43.088	-11.461	1.000000000
152.361	-12.475	-6.396	1.000000000
152.361	-6.627	-6.396	1.000000000
152.361	-0.778	-6.396	1.000000000
152.361	5.071	-6.396	1.000000000
152.361	10.920	-6.396	1.000000000
152.361	16.768	-6.396	1.000000000
152.361	22.617	-6.396	1.000000000
152.361	28.466	-6.396	1.000000000
152.361	40.164	-6.396	1.000000000
152.361	46.012	-6.396	1.000000000
152.361	-44.644	-1.330	1.000000000
152.361	-9.551	-1.330	1.000000000
152.361	-3.702	-1.330	1.000000000
152.361	2.147	-1.330	1.000000000
152.361	7.995	-1.330	1.000000000
152.361	13.844	-1.330	1.000000000
152.361	19.693	-1.330	1.000000000
152.361	25.542	-1.330	1.000000000
152.361	31.390	-1.330	1.000000000
152.361	37.239	-1.330	1.000000000
152.361	43.088	-1.330	1.000000000
152.361	-41.719	3.735	1.000000000
152.361	-12.475	3.735	1.000000000
152.361	-6.627	3.735	1.000000000
152.361	-0.778	3.735	1.000000000
152.361	5.071	3.735	1.000000000
152.361	10.920	3.735	1.000000000
152.361	16.768	3.735	1.000000000
152.361	22.617	3.735	1.000000000
152.361	28.466	3.735	1.000000000
152.361	40.164	3.735	1.000000000
152.361	46.012	3.735	1.000000000
152.361	-15.400	8.800	1.000000000
152.361	-9.551	8.800	1.000000000
152.361	-3.702	8.800	1.000000000
152.361	2.147	8.800	1.000000000
152.361	7.995	8.800	1.000000000
152.361	13.844	8.800	1.000000000
152.361	19.693	8.800	1.000000000
152.361	25.542	8.800	1.000000000
152.361	37.239	8.800	1.000000000
152.361	43.088	8.800	1.000000000
152.361	-41.719	13.865	1.000000000
152.361	-12.475	13.865	1.000000000
152.361	-6.627	13.865	1.000000000
152.361	-0.778	13.865	1.000000000
152.361	5.071	13.865	1.000000000
152.361	10.920	13.865	1.000000000
152.361	16.768	13.865	1.000000000
152.361	22.617	13.865	1.000000000
152.361	28.466	13.865	1.000000000
152.361	34.315	13.865	1.000000000
152.361	40.164	13.865	1.000000000
152.361	46.012	13.865	1.000000000
152.361	-44.644	18.930	1.000000000
152.361	-38.795	18.930	1.000000000
152.361	-9.551	18.930	1.000000000
152.361	-3.702	18.930	1.000000000
152.361	2.147	18.930	1.000000000
152.361	7.995	18.930	1.000000000
152.361	13.844	18.930	1.000000000
152.361	19.693	18.930	1.000000000
152.361	37.239	18.930	1.000000000
152.361	43.088	18.930	1.000000000
152.361	-41.719	23.996	1.000000000
152.361	-0.778	23.996	1.000000000
152.361	16.768	23.996	1.000000000
152.361	40.164	23.996	1.000000000
152.361	46.012	23.996	1.000000000
152.361	37.239	29.061	1.000000000
152.361	43.088	29.061	1.000000000
152.361	-41.719	34.126	1.000000000
152.361	16.768	34.126	1.000000000
152.361	22.617	34.126	1.000000000
152.361	40.164	34.126	1.000000000
152.361	-38.795	39.191	1.000000000
152.361	19.693	39.191	1.000000000
152.361	25.542	39.191	1.000000000
152.361	31.390	39.191	1.000000000
152.361	-35.871	44.256	1.000000000
152.361	16.768	44.256	1.000000000
152.361	22.617	44.256	1.000000000
152.361	28.466	44.256	1.000000000
152.361	19.693	49.321	1.000000000
152.361	25.542	49.321	1.000000000
149.624	-30.407	-37.354	1.000000000
149.624	-24.481	-37.354	1.000000000
149.624	-18.555	-37.354	1.000000000
149.624	-12.630	-37.354	1.000000000
149.624	-6.704	-37.354	1.000000000
149.624	-0.778	-37.354	1.000000000
149.624	5.148	-37.354	1.000000000
149.624	-21.518	-32.222	1.000000000
149.624	-15.592	-32.222	1.000000000
149.624	-9.667	-32.222	1.000000000
149.624	37.740	-32.222	1.000000000
149.624	40.703	-27.090	1.000000000
149.624	-9.667	-21.958	1.000000000
149.624	-3.741	-21.958	1.000000000
149.624	2.185	-21.958	1.000000000
149.624	8.111	-21.958	1.000000000
149.624	14.037	-21.958	1.000000000
149.624	37.740	-21.958	1.000000000
149.624	43.666	-21.958	1.000000000
149.624	-48.185	-16.826	1.000000000
149.624	-42.259	-16.826	1.000000000
149.624	-36.333	-16.826	1.000000000
149.624	-30.407	-16.826	1.000000000
149.624	-18.555	-16.826	1.000000000
149.624	-12.630	-16.826	1.000000000
149.624	-6.704	-16.826	1.000000000
149.624	-0.778	-16.826	1.000000000
149.624	5.148	-16.826	1.000000000
149.624	11.074	-16.826	1.000000000
149.624	17.000	-16.826	1.000000000
149.624	22.926	-16.826	1.000000000
149.624	34.777	-16.826	1.000000000
149.624	40.703	-16.826	1.000000000
149.624	46.629	-16.826	1.000000000
149.624	-45.222	-11.694	1.000000000
149.624	-39.296	-11.694	1.000000000
149.624	-21.518	-11.694	1.000000000
149.624	-15.592	-11.694	1.000000000
149.624	-9.667	-11.694	1.000000000
149.624	-3.741	-11.694	1.000000000
149.624	2.185	-11.694	1.000000000
149.624	8.111	-11.694	1.000000000
149.624	14.037	-11.694	1.000000000
149.624	19.963	-11.694	1.000000000
149.624	25.888	-11.694	1.000000000
149.624	37.740	-11.694	1.000000000
149.624	43.666	-11.694	1.000000000
149.624	-42.259	-6.562	1.000000000
149.624	-18.555	-6.562	1.000000000
149.624	-12.630	-6.562	1.000000000
149.624	-6.704	-6.562	1.000000000
149.624	-0.778	-6.562	1.000000000
149.624	5.148	-6.562	1.000000000
149.624	11.074	-6.562	1.000000000
149.624	17.000	-6.562	1.000000000
149.624	22.926	-6.562	1.000000000
149.624	28.851	-6.562	1.000000000
149.624	34.777	-6.562	1.000000000
149.624	40.703	-6.562	1.000000000
149.624	46.629	-6.562	1.000000000
149.624	-45.222	-1.431	1.000000000
149.624	-15.592	-1.431	1.000000000
149.624	-9.667	-1.431	1.000000000
149.624	-3.741	-1.431	1.000000000
149.624	2.185	-1.431	1.000000000
149.624	8.111	-1.431	1.000000000
149.624	14.037	-1.431	1.000000000
149.624	19.963	-1.431	1.000000000
149.624	25.888	-1.431	1.000000000
149.624	31.814	-1.431	1.000000000
149.624	37.740	-1.431	1.000000000
149.624	43.666	-1.431	1.000000000
149.624	-42.259	3.701	1.000000000
149.624	-12.630	3.701	1.000000000
149.624	-6.704	3.701	1.000000000
149.624	-0.778	3.701	1.000000000
149.624	5.148	3.701	1.000000000
149.624	11.074	3.701	1.000000000
149.624	17.000	3.701	1.000000000
149.624	22.926	3.701	1.000000000
149.624	28.851	3.701	1.000000000
149.624	34.777	3.701	1.000000000
149.624	40.703	3.701	1.000000000
149.624	46.629	3.701	1.000000000
149.624	-39.296	8.833	1.000000000
149.624	-15.592	8.833	1.000000000
149.624	-9.667	8.833	1.000000000
149.624	-3.741	8.833	1.000000000
149.624	2.185	8.833	1.000000000
149.624	8.111	8.833	1.000000000
149.624	14.037	8.833	1.000000000
149.624	19.963	8.833	1.000000000
149.624	25.888	8.833	1.000000000
149.624	31.814	8.833	1.000000000
149.624	37.740	8.833	1.000000000
149.624	43.666	8.833	1.000000000
149.624	-36.333	13.965	1.000000000
149.624	-12.630	13.965	1.000000000
149.624	-6.704	13.965	1.000000000
149.624	-0.778	13.965	1.000000000
149.624	5.148	13.965	1.000000000
149.624	11.074	13.965	1.000000000
149.624	17.000	13.965	1.000000000
149.624	22.926	13.965	1.000000000
149.624	28.851	13.965	1.000000000
149.624	34.777	13.965	1.000000000
149.624	40.703	13.965	1.000000000
149.624	46.629	13.965	1.000000000
149.624	-39.296	19.097	1.000000000
149.624	-33.370	19.097	1.000000000
149.624	-15.592	19.097	1.000000000
149.624	-9.667	19.097	1.000000000
149.624	-3.741	19.097	1.000000000
149.624	2.185	19.097	1.000000000
149.624	8.111	19.097	1.000000000
149.624	14.037	19.097	1.000000000
149.624	19.963	19.097	1.000000000
149.624	25.888	19.097	1.000000000
149.624	31.814	19.097	1.000000000
149.624	37.740	19.097	1.000000000
149.624	43.666	19.097	1.000000000
149.624	-42.259	24.229	1.000000000
149.624	-36.333	24.229	1.000000000
149.624	-6.704	24.229	1.000000000
149.624	-0.778	24.229	1.000000000
149.624	5.148	24.229	1.000000000
149.624	17.000	24.229	1.000000000
149.624	40.703	24.229	1.000000000
149.624	46.629	24.229	1.000000000
149.624	-39.296	29.361	1.000000000
149.624	14.037	29.361	1.000000000
149.624	19.963	29.361	1.000000000
149.624	31.814	29.361	1.000000000
149.624	37.740	29.361	1.000000000
149.624	43.666	29.361	1.000000000
149.624	17.000	34.493	1.000000000
149.624	22.926	34.493	1.000000000
149.624	28.851	34.493	1.000000000
149.624	34.777	34.493	1.000000000
149.624	40.703	34.493	1.000000000
149.624	14.037	39.625	1.000000000
149.624	19.963	39.625	1.000000000
149.624	25.888	39.625	1.000000000
149.624	31.814	39.625	1.000000000
149.624	-30.407	44.757	1.000000000
149.624	17.000	44.757	1.000000000
149.624	22.926	44.757	1.000000000
149.624	28.851	44.757	1.000000000
149.624	19.963	49.889	1.000000000
149.624	25.888	49.889	1.000000000
146.845	-36.812	-37.942	1.000000000
146.845	-30.806	-37.942	1.000000000
146.845	-24.801	-37.942	1.000000000
146.845	-18.795	-37.942	1.000000000
146.845	-12.789	-37.942	1.000000000
146.845	-6.784	-37.942	1.000000000
146.845	-0.778	-37.942	1.000000000
146.845	5.228	-37.942	1.000000000
146.845	11.234	-37.942	1.000000000
146.845	-33.809	-32.741	1.000000000
146.845	-27.803	-32.741	1.000000000
146.845	-21.798	-32.741	1.000000000
146.845	-15.792	-32.741	1.000000000
146.845	-9.786	-32.741	1.000000000
