# patient_id 055-69-54
# patient_first_name DOROTHY
# patient_middle_initial _
# patient_last_name CULLEN
# astroid_id 74069
# course_name 1st
# beam_name 90deg1
# gantry 90.0
# couch_rotation -0.0
# gigaproton_total 2636
# rows_total 2636
# E(MeV) X(mm) Y(mm) N(Gp)
171.760	-10.815	-5.409	1.000000000
171.760	-10.815	3.899	1.000000000
171.760	-8.128	8.552	1.000000000
171.760	-2.755	8.552	1.000000000
171.760	-5.442	13.206	1.000000000
171.760	-0.068	13.206	1.000000000
171.760	5.306	13.206	1.000000000
171.760	-2.755	17.860	1.000000000
171.760	2.619	17.860	1.000000000
169.294	-8.234	-10.222	1.000000000
169.294	-16.373	-5.523	1.000000000
169.294	-10.947	-5.523	1.000000000
169.294	-5.520	-5.523	1.000000000
169.294	-13.660	-0.823	1.000000000
169.294	-8.234	-0.823	1.000000000
169.294	-2.807	-0.823	1.000000000
169.294	-16.373	3.876	1.000000000
169.294	-10.947	3.876	1.000000000
169.294	-5.520	3.876	1.000000000
169.294	-0.094	3.876	1.000000000
169.294	-13.660	8.575	1.000000000
169.294	-8.234	8.575	1.000000000
169.294	-2.807	8.575	1.000000000
169.294	2.619	8.575	1.000000000
169.294	8.045	8.575	1.000000000
169.294	-10.947	13.274	1.000000000
169.294	-5.520	13.274	1.000000000
169.294	-0.094	13.274	1.000000000
169.294	5.332	13.274	1.000000000
169.294	-2.807	17.974	1.000000000
169.294	2.619	17.974	1.000000000
169.294	8.045	17.974	1.000000000
169.294	-0.094	22.673	1.000000000
166.844	-11.087	-17.514	1.000000000
166.844	-19.311	-12.766	1.000000000
166.844	-13.828	-12.766	1.000000000
166.844	-8.346	-12.766	1.000000000
166.844	-11.087	-8.018	1.000000000
166.844	-5.605	-8.018	1.000000000
166.844	-13.828	-3.270	1.000000000
166.844	-8.346	-3.270	1.000000000
166.844	-2.863	-3.270	1.000000000
166.844	2.619	-3.270	1.000000000
166.844	8.101	-3.270	1.000000000
166.844	-16.569	1.478	1.000000000
166.844	-11.087	1.478	1.000000000
166.844	-5.605	1.478	1.000000000
166.844	-0.122	1.478	1.000000000
166.844	5.360	1.478	1.000000000
166.844	10.843	1.478	1.000000000
166.844	16.325	1.478	1.000000000
166.844	-13.828	6.226	1.000000000
166.844	-8.346	6.226	1.000000000
166.844	-2.863	6.226	1.000000000
166.844	2.619	6.226	1.000000000
166.844	8.101	6.226	1.000000000
166.844	13.584	6.226	1.000000000
166.844	-16.569	10.973	1.000000000
166.844	-11.087	10.973	1.000000000
166.844	-5.605	10.973	1.000000000
166.844	-0.122	10.973	1.000000000
166.844	5.360	10.973	1.000000000
166.844	10.843	10.973	1.000000000
166.844	-13.828	15.721	1.000000000
166.844	-8.346	15.721	1.000000000
166.844	-2.863	15.721	1.000000000
166.844	2.619	15.721	1.000000000
166.844	8.101	15.721	1.000000000
166.844	13.584	15.721	1.000000000
166.844	-5.605	20.469	1.000000000
166.844	-0.122	20.469	1.000000000
166.844	5.360	20.469	1.000000000
164.287	-19.558	-12.980	1.000000000
164.287	-14.013	-12.980	1.000000000
164.287	-8.469	-12.980	1.000000000
164.287	-2.925	-12.980	1.000000000
164.287	-22.330	-8.179	1.000000000
164.287	-16.785	-8.179	1.000000000
164.287	-11.241	-8.179	1.000000000
164.287	-5.697	-8.179	1.000000000
164.287	-0.153	-8.179	1.000000000
164.287	5.391	-8.179	1.000000000
164.287	-19.558	-3.377	1.000000000
164.287	-14.013	-3.377	1.000000000
164.287	-8.469	-3.377	1.000000000
164.287	-2.925	-3.377	1.000000000
164.287	2.619	-3.377	1.000000000
164.287	8.163	-3.377	1.000000000
164.287	13.707	-3.377	1.000000000
164.287	-16.785	1.424	1.000000000
164.287	-11.241	1.424	1.000000000
164.287	-5.697	1.424	1.000000000
164.287	-0.153	1.424	1.000000000
164.287	5.391	1.424	1.000000000
164.287	10.935	1.424	1.000000000
164.287	16.479	1.424	1.000000000
164.287	-25.102	6.226	1.000000000
164.287	-14.013	6.226	1.000000000
164.287	-8.469	6.226	1.000000000
164.287	-2.925	6.226	1.000000000
164.287	2.619	6.226	1.000000000
164.287	8.163	6.226	1.000000000
164.287	13.707	6.226	1.000000000
164.287	-16.785	11.027	1.000000000
164.287	-11.241	11.027	1.000000000
164.287	-5.697	11.027	1.000000000
164.287	-0.153	11.027	1.000000000
164.287	5.391	11.027	1.000000000
164.287	10.935	11.027	1.000000000
164.287	16.479	11.027	1.000000000
164.287	-19.558	15.828	1.000000000
164.287	-14.013	15.828	1.000000000
164.287	-8.469	15.828	1.000000000
164.287	-2.925	15.828	1.000000000
164.287	2.619	15.828	1.000000000
164.287	8.163	15.828	1.000000000
164.287	13.707	15.828	1.000000000
164.287	19.251	15.828	1.000000000
164.287	-5.697	20.630	1.000000000
164.287	-0.153	20.630	1.000000000
164.287	5.391	20.630	1.000000000
164.287	10.935	20.630	1.000000000
161.635	-22.641	-18.081	1.000000000
161.635	-19.834	-13.219	1.000000000
161.635	-14.221	-13.219	1.000000000
161.635	-8.607	-13.219	1.000000000
161.635	-2.994	-13.219	1.000000000
161.635	-22.641	-8.358	1.000000000
161.635	-17.027	-8.358	1.000000000
161.635	-11.414	-8.358	1.000000000
161.635	-5.801	-8.358	1.000000000
161.635	-0.188	-8.358	1.000000000
161.635	5.426	-8.358	1.000000000
161.635	11.039	-8.358	1.000000000
161.635	-31.061	-3.497	1.000000000
161.635	-25.447	-3.497	1.000000000
161.635	-19.834	-3.497	1.000000000
161.635	-14.221	-3.497	1.000000000
161.635	-8.607	-3.497	1.000000000
161.635	-2.994	-3.497	1.000000000
161.635	2.619	-3.497	1.000000000
161.635	8.232	-3.497	1.000000000
161.635	13.846	-3.497	1.000000000
161.635	-28.254	1.364	1.000000000
161.635	-22.641	1.364	1.000000000
161.635	-17.027	1.364	1.000000000
161.635	-11.414	1.364	1.000000000
161.635	-5.801	1.364	1.000000000
161.635	-0.188	1.364	1.000000000
161.635	5.426	1.364	1.000000000
161.635	11.039	1.364	1.000000000
161.635	16.652	1.364	1.000000000
161.635	-25.447	6.226	1.000000000
161.635	-19.834	6.226	1.000000000
161.635	-14.221	6.226	1.000000000
161.635	-8.607	6.226	1.000000000
161.635	-2.994	6.226	1.000000000
161.635	2.619	6.226	1.000000000
161.635	8.232	6.226	1.000000000
161.635	13.846	6.226	1.000000000
161.635	19.459	6.226	1.000000000
161.635	-22.641	11.087	1.000000000
161.635	-17.027	11.087	1.000000000
161.635	-11.414	11.087	1.000000000
161.635	-5.801	11.087	1.000000000
161.635	-0.188	11.087	1.000000000
161.635	5.426	11.087	1.000000000
161.635	11.039	11.087	1.000000000
161.635	16.652	11.087	1.000000000
161.635	-19.834	15.948	1.000000000
161.635	-14.221	15.948	1.000000000
161.635	-8.607	15.948	1.000000000
161.635	-2.994	15.948	1.000000000
161.635	2.619	15.948	1.000000000
161.635	8.232	15.948	1.000000000
161.635	13.846	15.948	1.000000000
161.635	19.459	15.948	1.000000000
161.635	-17.027	20.809	1.000000000
161.635	-11.414	20.809	1.000000000
161.635	-5.801	20.809	1.000000000
161.635	-0.188	20.809	1.000000000
161.635	5.426	20.809	1.000000000
161.635	11.039	20.809	1.000000000
161.635	2.619	25.670	1.000000000
161.635	-17.027	30.532	1.000000000
161.635	-11.414	30.532	1.000000000
161.635	5.426	30.532	1.000000000
158.993	-22.939	-18.368	1.000000000
158.993	-5.900	-18.368	1.000000000
158.993	-25.779	-13.449	1.000000000
158.993	-20.099	-13.449	1.000000000
158.993	-14.420	-13.449	1.000000000
158.993	-8.740	-13.449	1.000000000
158.993	-3.061	-13.449	1.000000000
158.993	2.619	-13.449	1.000000000
158.993	-28.619	-8.530	1.000000000
158.993	-22.939	-8.530	1.000000000
158.993	-17.259	-8.530	1.000000000
158.993	-11.580	-8.530	1.000000000
158.993	-5.900	-8.530	1.000000000
158.993	-0.221	-8.530	1.000000000
158.993	5.459	-8.530	1.000000000
158.993	11.138	-8.530	1.000000000
158.993	16.818	-8.530	1.000000000
158.993	-31.458	-3.612	1.000000000
158.993	-25.779	-3.612	1.000000000
158.993	-20.099	-3.612	1.000000000
158.993	-14.420	-3.612	1.000000000
158.993	-8.740	-3.612	1.000000000
158.993	-3.061	-3.612	1.000000000
158.993	2.619	-3.612	1.000000000
158.993	8.299	-3.612	1.000000000
158.993	13.978	-3.612	1.000000000
158.993	19.658	-3.612	1.000000000
158.993	-34.298	1.307	1.000000000
158.993	-28.619	1.307	1.000000000
158.993	-22.939	1.307	1.000000000
158.993	-17.259	1.307	1.000000000
158.993	-11.580	1.307	1.000000000
158.993	-5.900	1.307	1.000000000
158.993	-0.221	1.307	1.000000000
158.993	5.459	1.307	1.000000000
158.993	11.138	1.307	1.000000000
158.993	16.818	1.307	1.000000000
158.993	-31.458	6.226	1.000000000
158.993	-25.779	6.226	1.000000000
158.993	-20.099	6.226	1.000000000
158.993	-14.420	6.226	1.000000000
158.993	-8.740	6.226	1.000000000
158.993	-3.061	6.226	1.000000000
158.993	2.619	6.226	1.000000000
158.993	8.299	6.226	1.000000000
158.993	13.978	6.226	1.000000000
158.993	19.658	6.226	1.000000000
158.993	-28.619	11.144	1.000000000
158.993	-22.939	11.144	1.000000000
158.993	-17.259	11.144	1.000000000
158.993	-11.580	11.144	1.000000000
158.993	-5.900	11.144	1.000000000
158.993	-0.221	11.144	1.000000000
158.993	5.459	11.144	1.000000000
158.993	11.138	11.144	1.000000000
158.993	16.818	11.144	1.000000000
158.993	-31.458	16.063	1.000000000
158.993	-25.779	16.063	1.000000000
158.993	-20.099	16.063	1.000000000
158.993	-14.420	16.063	1.000000000
158.993	-8.740	16.063	1.000000000
158.993	-3.061	16.063	1.000000000
158.993	2.619	16.063	1.000000000
158.993	8.299	16.063	1.000000000
158.993	13.978	16.063	1.000000000
158.993	19.658	16.063	1.000000000
158.993	-22.939	20.981	1.000000000
158.993	-17.259	20.981	1.000000000
158.993	-11.580	20.981	1.000000000
158.993	-5.900	20.981	1.000000000
158.993	-0.221	20.981	1.000000000
158.993	5.459	20.981	1.000000000
158.993	11.138	20.981	1.000000000
158.993	16.818	20.981	1.000000000
158.993	-20.099	25.900	1.000000000
158.993	-14.420	25.900	1.000000000
158.993	2.619	25.900	1.000000000
158.993	8.299	25.900	1.000000000
158.993	-17.259	30.819	1.000000000
158.993	-11.580	30.819	1.000000000
158.993	-5.900	30.819	1.000000000
158.993	5.459	30.819	1.000000000
158.993	11.138	30.819	1.000000000
158.993	-8.740	35.737	1.000000000
158.993	-3.061	35.737	1.000000000
158.993	-22.939	40.656	1.000000000
156.374	-26.106	-23.627	1.000000000
156.374	-14.616	-23.627	1.000000000
156.374	-23.234	-18.651	1.000000000
156.374	-17.489	-18.651	1.000000000
156.374	-11.744	-18.651	1.000000000
156.374	-5.999	-18.651	1.000000000
156.374	-0.253	-18.651	1.000000000
156.374	-26.106	-13.676	1.000000000
156.374	-20.361	-13.676	1.000000000
156.374	-14.616	-13.676	1.000000000
156.374	-8.871	-13.676	1.000000000
156.374	-3.126	-13.676	1.000000000
156.374	2.619	-13.676	1.000000000
156.374	8.364	-13.676	1.000000000
156.374	-28.979	-8.701	1.000000000
156.374	-23.234	-8.701	1.000000000
156.374	-17.489	-8.701	1.000000000
156.374	-11.744	-8.701	1.000000000
156.374	-5.999	-8.701	1.000000000
156.374	-0.253	-8.701	1.000000000
156.374	5.492	-8.701	1.000000000
156.374	11.237	-8.701	1.000000000
156.374	16.982	-8.701	1.000000000
156.374	-37.597	-3.725	1.000000000
156.374	-31.851	-3.725	1.000000000
156.374	-26.106	-3.725	1.000000000
156.374	-20.361	-3.725	1.000000000
156.374	-14.616	-3.725	1.000000000
156.374	-8.871	-3.725	1.000000000
156.374	-3.126	-3.725	1.000000000
156.374	2.619	-3.725	1.000000000
156.374	8.364	-3.725	1.000000000
156.374	14.109	-3.725	1.000000000
156.374	19.854	-3.725	1.000000000
156.374	-40.469	1.250	1.000000000
156.374	-34.724	1.250	1.000000000
156.374	-28.979	1.250	1.000000000
156.374	-23.234	1.250	1.000000000
156.374	-17.489	1.250	1.000000000
156.374	-11.744	1.250	1.000000000
156.374	-5.999	1.250	1.000000000
156.374	-0.253	1.250	1.000000000
156.374	5.492	1.250	1.000000000
156.374	11.237	1.250	1.000000000
156.374	16.982	1.250	1.000000000
156.374	22.727	1.250	1.000000000
156.374	-37.597	6.226	1.000000000
156.374	-31.851	6.226	1.000000000
156.374	-26.106	6.226	1.000000000
156.374	-20.361	6.226	1.000000000
156.374	-14.616	6.226	1.000000000
156.374	-8.871	6.226	1.000000000
156.374	-3.126	6.226	1.000000000
156.374	2.619	6.226	1.000000000
156.374	8.364	6.226	1.000000000
156.374	14.109	6.226	1.000000000
156.374	19.854	6.226	1.000000000
156.374	-40.469	11.201	1.000000000
156.374	-34.724	11.201	1.000000000
156.374	-28.979	11.201	1.000000000
156.374	-23.234	11.201	1.000000000
156.374	-17.489	11.201	1.000000000
156.374	-11.744	11.201	1.000000000
156.374	-5.999	11.201	1.000000000
156.374	-0.253	11.201	1.000000000
156.374	5.492	11.201	1.000000000
156.374	11.237	11.201	1.000000000
156.374	16.982	11.201	1.000000000
156.374	-37.597	16.176	1.000000000
156.374	-31.851	16.176	1.000000000
156.374	-26.106	16.176	1.000000000
156.374	-20.361	16.176	1.000000000
156.374	-14.616	16.176	1.000000000
156.374	-8.871	16.176	1.000000000
156.374	-3.126	16.176	1.000000000
156.374	2.619	16.176	1.000000000
156.374	8.364	16.176	1.000000000
156.374	14.109	16.176	1.000000000
156.374	19.854	16.176	1.000000000
156.374	-34.724	21.152	1.000000000
156.374	-28.979	21.152	1.000000000
156.374	-23.234	21.152	1.000000000
156.374	-17.489	21.152	1.000000000
156.374	-11.744	21.152	1.000000000
156.374	-5.999	21.152	1.000000000
156.374	-0.253	21.152	1.000000000
156.374	5.492	21.152	1.000000000
156.374	11.237	21.152	1.000000000
156.374	16.982	21.152	1.000000000
156.374	-26.106	26.127	1.000000000
156.374	-20.361	26.127	1.000000000
156.374	-14.616	26.127	1.000000000
156.374	-8.871	26.127	1.000000000
156.374	2.619	26.127	1.000000000
156.374	8.364	26.127	1.000000000
156.374	14.109	26.127	1.000000000
156.374	-17.489	31.102	1.000000000
156.374	-11.744	31.102	1.000000000
156.374	-5.999	31.102	1.000000000
156.374	-0.253	31.102	1.000000000
156.374	5.492	31.102	1.000000000
156.374	11.237	31.102	1.000000000
156.374	-8.871	36.078	1.000000000
156.374	-3.126	36.078	1.000000000
156.374	2.619	36.078	1.000000000
156.374	8.364	36.078	1.000000000
156.374	-28.979	41.053	1.000000000
156.374	-23.234	41.053	1.000000000
156.374	-5.999	41.053	1.000000000
156.374	-0.253	41.053	1.000000000
156.374	28.472	41.053	1.000000000
156.374	34.217	41.053	1.000000000
156.374	39.962	41.053	1.000000000
156.374	-31.851	46.029	1.000000000
156.374	-26.106	46.029	1.000000000
156.374	25.599	46.029	1.000000000
156.374	31.344	46.029	1.000000000
153.711	-29.357	-34.053	1.000000000
153.711	-29.357	-23.984	1.000000000
153.711	-23.543	-23.984	1.000000000
153.711	-17.729	-23.984	1.000000000
153.711	-11.915	-23.984	1.000000000
153.711	-26.450	-18.949	1.000000000
153.711	-20.636	-18.949	1.000000000
153.711	-14.822	-18.949	1.000000000
153.711	-9.008	-18.949	1.000000000
153.711	-3.195	-18.949	1.000000000
153.711	2.619	-18.949	1.000000000
153.711	-29.357	-13.914	1.000000000
153.711	-23.543	-13.914	1.000000000
153.711	-17.729	-13.914	1.000000000
153.711	-11.915	-13.914	1.000000000
153.711	-6.102	-13.914	1.000000000
153.711	-0.288	-13.914	1.000000000
153.711	5.526	-13.914	1.000000000
153.711	11.340	-13.914	1.000000000
153.711	-38.077	-8.879	1.000000000
153.711	-32.264	-8.879	1.000000000
153.711	-26.450	-8.879	1.000000000
153.711	-20.636	-8.879	1.000000000
153.711	-14.822	-8.879	1.000000000
153.711	-9.008	-8.879	1.000000000
153.711	-3.195	-8.879	1.000000000
153.711	2.619	-8.879	1.000000000
153.711	8.433	-8.879	1.000000000
153.711	14.247	-8.879	1.000000000
153.711	20.060	-8.879	1.000000000
153.711	-40.984	-3.844	1.000000000
153.711	-35.170	-3.844	1.000000000
153.711	-29.357	-3.844	1.000000000
153.711	-23.543	-3.844	1.000000000
153.711	-17.729	-3.844	1.000000000
153.711	-11.915	-3.844	1.000000000
153.711	-6.102	-3.844	1.000000000
153.711	-0.288	-3.844	1.000000000
153.711	5.526	-3.844	1.000000000
153.711	11.340	-3.844	1.000000000
153.711	17.153	-3.844	1.000000000
153.711	-43.891	1.191	1.000000000
153.711	-38.077	1.191	1.000000000
153.711	-32.264	1.191	1.000000000
153.711	-26.450	1.191	1.000000000
153.711	-20.636	1.191	1.000000000
153.711	-14.822	1.191	1.000000000
153.711	-9.008	1.191	1.000000000
153.711	-3.195	1.191	1.000000000
153.711	2.619	1.191	1.000000000
153.711	8.433	1.191	1.000000000
153.711	14.247	1.191	1.000000000
153.711	20.060	1.191	1.000000000
153.711	-40.984	6.226	1.000000000
153.711	-35.170	6.226	1.000000000
153.711	-29.357	6.226	1.000000000
153.711	-23.543	6.226	1.000000000
153.711	-17.729	6.226	1.000000000
153.711	-11.915	6.226	1.000000000
153.711	-6.102	6.226	1.000000000
153.711	-0.288	6.226	1.000000000
153.711	5.526	6.226	1.000000000
153.711	11.340	6.226	1.000000000
153.711	17.153	6.226	1.000000000
153.711	22.967	6.226	1.000000000
153.711	-43.891	11.260	1.000000000
153.711	-38.077	11.260	1.000000000
153.711	-32.264	11.260	1.000000000
153.711	-26.450	11.260	1.000000000
153.711	-20.636	11.260	1.000000000
153.711	-14.822	11.260	1.000000000
153.711	-9.008	11.260	1.000000000
153.711	-3.195	11.260	1.000000000
153.711	2.619	11.260	1.000000000
153.711	8.433	11.260	1.000000000
153.711	14.247	11.260	1.000000000
153.711	20.060	11.260	1.000000000
153.711	25.874	11.260	1.000000000
153.711	-40.984	16.295	1.000000000
153.711	-35.170	16.295	1.000000000
153.711	-29.357	16.295	1.000000000
153.711	-23.543	16.295	1.000000000
153.711	-17.729	16.295	1.000000000
153.711	-11.915	16.295	1.000000000
153.711	-6.102	16.295	1.000000000
153.711	-0.288	16.295	1.000000000
153.711	5.526	16.295	1.000000000
153.711	11.340	16.295	1.000000000
153.711	17.153	16.295	1.000000000
153.711	22.967	16.295	1.000000000
153.711	-38.077	21.330	1.000000000
153.711	-32.264	21.330	1.000000000
153.711	-26.450	21.330	1.000000000
153.711	-20.636	21.330	1.000000000
153.711	-14.822	21.330	1.000000000
153.711	-9.008	21.330	1.000000000
153.711	-3.195	21.330	1.000000000
153.711	2.619	21.330	1.000000000
153.711	8.433	21.330	1.000000000
153.711	14.247	21.330	1.000000000
153.711	20.060	21.330	1.000000000
153.711	-35.170	26.365	1.000000000
153.711	-29.357	26.365	1.000000000
153.711	-23.543	26.365	1.000000000
153.711	-17.729	26.365	1.000000000
153.711	-11.915	26.365	1.000000000
153.711	-6.102	26.365	1.000000000
153.711	-0.288	26.365	1.000000000
153.711	5.526	26.365	1.000000000
153.711	11.340	26.365	1.000000000
153.711	17.153	26.365	1.000000000
153.711	-43.891	31.400	1.000000000
153.711	-38.077	31.400	1.000000000
153.711	-32.264	31.400	1.000000000
153.711	-26.450	31.400	1.000000000
153.711	-20.636	31.400	1.000000000
153.711	-14.822	31.400	1.000000000
153.711	-9.008	31.400	1.000000000
153.711	-3.195	31.400	1.000000000
153.711	2.619	31.400	1.000000000
153.711	8.433	31.400	1.000000000
153.711	14.247	31.400	1.000000000
153.711	-40.984	36.435	1.000000000
153.711	-35.170	36.435	1.000000000
153.711	-29.357	36.435	1.000000000
153.711	-23.543	36.435	1.000000000
153.711	-17.729	36.435	1.000000000
153.711	-11.915	36.435	1.000000000
153.711	-6.102	36.435	1.000000000
153.711	-0.288	36.435	1.000000000
153.711	5.526	36.435	1.000000000
153.711	11.340	36.435	1.000000000
153.711	28.781	36.435	1.000000000
153.711	34.595	36.435	1.000000000
153.711	40.409	36.435	1.000000000
153.711	-38.077	41.470	1.000000000
153.711	-32.264	41.470	1.000000000
153.711	-26.450	41.470	1.000000000
153.711	-20.636	41.470	1.000000000
153.711	-14.822	41.470	1.000000000
153.711	-3.195	41.470	1.000000000
153.711	2.619	41.470	1.000000000
153.711	8.433	41.470	1.000000000
153.711	25.874	41.470	1.000000000
153.711	31.688	41.470	1.000000000
153.711	-35.170	46.504	1.000000000
153.711	-29.357	46.504	1.000000000
153.711	-23.543	46.504	1.000000000
153.711	22.967	46.504	1.000000000
153.711	28.781	46.504	1.000000000
153.711	-26.450	51.539	1.000000000
150.998	-32.706	-37.113	1.000000000
150.998	-26.818	-37.113	1.000000000
150.998	-20.931	-37.113	1.000000000
150.998	-15.043	-37.113	1.000000000
150.998	-29.762	-32.014	1.000000000
150.998	-23.874	-32.014	1.000000000
150.998	-26.818	-26.916	1.000000000
150.998	-20.931	-26.916	1.000000000
150.998	-29.762	-21.817	1.000000000
150.998	-23.874	-21.817	1.000000000
150.998	-17.987	-21.817	1.000000000
150.998	-12.100	-21.817	1.000000000
150.998	-6.212	-21.817	1.000000000
150.998	-0.325	-21.817	1.000000000
150.998	-32.706	-16.718	1.000000000
150.998	-26.818	-16.718	1.000000000
150.998	-20.931	-16.718	1.000000000
150.998	-15.043	-16.718	1.000000000
150.998	-9.156	-16.718	1.000000000
150.998	-3.268	-16.718	1.000000000
150.998	2.619	-16.718	1.000000000
150.998	8.506	-16.718	1.000000000
150.998	-41.537	-11.620	1.000000000
150.998	-35.649	-11.620	1.000000000
150.998	-29.762	-11.620	1.000000000
150.998	-23.874	-11.620	1.000000000
150.998	-17.987	-11.620	1.000000000
150.998	-12.100	-11.620	1.000000000
150.998	-6.212	-11.620	1.000000000
150.998	-0.325	-11.620	1.000000000
150.998	5.563	-11.620	1.000000000
150.998	11.450	-11.620	1.000000000
150.998	17.338	-11.620	1.000000000
150.998	-44.480	-6.521	1.000000000
150.998	-38.593	-6.521	1.000000000
